Diffraction MTF

File : C:\Users\Trisha\Documents\Zemax\SAMPLES\Navarro_Trisha_scene2retina.ZMX
Title: 
Date : 10/16/2018


Data for 0.6328 Âµm.
Surface: Image (RETINA)
Angular Frequency units are cycles per mr.
Modulation is relative to 1.0.

Field: 0.0000 (deg)
Spatial Frequency	  Tangential	    Sagittal
         0.000000	    1.000000	    1.000000
         0.002000	    0.999639	    0.999639
         0.004000	    0.999275	    0.999275
         0.006000	    0.998903	    0.998903
         0.008000	    0.998524	    0.998524
         0.010000	    0.998141	    0.998141
         0.012000	    0.997751	    0.997751
         0.014000	    0.997355	    0.997355
         0.016000	    0.996954	    0.996954
         0.018000	    0.996547	    0.996547
         0.020000	    0.996134	    0.996134
         0.022000	    0.995715	    0.995715
         0.024000	    0.995291	    0.995291
         0.026000	    0.994861	    0.994861
         0.028000	    0.994425	    0.994425
         0.030000	    0.993984	    0.993984
         0.032000	    0.993538	    0.993538
         0.034000	    0.993086	    0.993086
         0.036000	    0.992629	    0.992629
         0.038000	    0.992167	    0.992167
         0.040000	    0.991699	    0.991699
         0.042000	    0.991226	    0.991226
         0.044000	    0.990747	    0.990747
         0.046000	    0.990264	    0.990264
         0.048000	    0.989775	    0.989775
         0.050000	    0.989282	    0.989282
         0.052000	    0.988783	    0.988783
         0.054000	    0.988279	    0.988279
         0.056000	    0.987771	    0.987771
         0.058000	    0.987257	    0.987257
         0.060000	    0.986739	    0.986739
         0.062000	    0.986215	    0.986215
         0.064000	    0.985687	    0.985687
         0.066000	    0.985154	    0.985154
         0.068000	    0.984617	    0.984617
         0.070000	    0.984075	    0.984075
         0.072000	    0.983528	    0.983528
         0.074000	    0.982976	    0.982976
         0.076000	    0.982420	    0.982420
         0.078000	    0.981859	    0.981859
         0.080000	    0.981294	    0.981294
         0.082000	    0.980725	    0.980725
         0.084000	    0.980151	    0.980151
         0.086000	    0.979572	    0.979572
         0.088000	    0.978990	    0.978990
         0.090000	    0.978403	    0.978403
         0.092000	    0.977811	    0.977811
         0.094000	    0.977216	    0.977216
         0.096000	    0.976616	    0.976616
         0.098000	    0.976012	    0.976012
         0.100000	    0.975404	    0.975404
         0.102000	    0.974792	    0.974792
         0.104000	    0.974176	    0.974176
         0.106000	    0.973555	    0.973555
         0.108000	    0.972931	    0.972931
         0.110000	    0.972303	    0.972303
         0.112000	    0.971671	    0.971671
         0.114000	    0.971035	    0.971035
         0.116000	    0.970395	    0.970395
         0.118000	    0.969751	    0.969751
         0.120000	    0.969104	    0.969104
         0.122000	    0.968453	    0.968453
         0.124000	    0.967798	    0.967798
         0.126000	    0.967139	    0.967139
         0.128000	    0.966476	    0.966476
         0.130000	    0.965810	    0.965810
         0.132000	    0.965141	    0.965141
         0.134000	    0.964468	    0.964468
         0.136000	    0.963791	    0.963791
         0.138000	    0.963111	    0.963111
         0.140000	    0.962427	    0.962427
         0.142000	    0.961740	    0.961740
         0.144000	    0.961049	    0.961049
         0.146000	    0.960355	    0.960355
         0.148000	    0.959658	    0.959658
         0.150000	    0.958957	    0.958957
         0.152000	    0.958253	    0.958253
         0.154000	    0.957546	    0.957546
         0.156000	    0.956835	    0.956835
         0.158000	    0.956122	    0.956122
         0.160000	    0.955405	    0.955405
         0.162000	    0.954685	    0.954685
         0.164000	    0.953961	    0.953961
         0.166000	    0.953235	    0.953235
         0.168000	    0.952506	    0.952506
         0.170000	    0.951773	    0.951773
         0.172000	    0.951038	    0.951038
         0.174000	    0.950299	    0.950299
         0.176000	    0.949557	    0.949557
         0.178000	    0.948813	    0.948813
         0.180000	    0.948066	    0.948066
         0.182000	    0.947315	    0.947315
         0.184000	    0.946562	    0.946562
         0.186000	    0.945806	    0.945806
         0.188000	    0.945047	    0.945047
         0.190000	    0.944286	    0.944286
         0.192000	    0.943521	    0.943521
         0.194000	    0.942754	    0.942754
         0.196000	    0.941984	    0.941984
         0.198000	    0.941212	    0.941212
         0.200000	    0.940436	    0.940436
         0.202000	    0.939658	    0.939658
         0.204000	    0.938878	    0.938878
         0.206000	    0.938095	    0.938095
         0.208000	    0.937309	    0.937309
         0.210000	    0.936521	    0.936521
         0.212000	    0.935730	    0.935730
         0.214000	    0.934936	    0.934936
         0.216000	    0.934140	    0.934140
         0.218000	    0.933342	    0.933342
         0.220000	    0.932541	    0.932541
         0.222000	    0.931738	    0.931738
         0.224000	    0.930932	    0.930932
         0.226000	    0.930124	    0.930124
         0.228000	    0.929314	    0.929314
         0.230000	    0.928501	    0.928501
         0.232000	    0.927686	    0.927686
         0.234000	    0.926868	    0.926868
         0.236000	    0.926049	    0.926049
         0.238000	    0.925227	    0.925227
         0.240000	    0.924403	    0.924403
         0.242000	    0.923576	    0.923576
         0.244000	    0.922747	    0.922747
         0.246000	    0.921917	    0.921917
         0.248000	    0.921084	    0.921084
         0.250000	    0.920248	    0.920248
         0.252000	    0.919411	    0.919411
         0.254000	    0.918572	    0.918572
         0.256000	    0.917730	    0.917730
         0.258000	    0.916887	    0.916887
         0.260000	    0.916041	    0.916041
         0.262000	    0.915193	    0.915193
         0.264000	    0.914344	    0.914344
         0.266000	    0.913492	    0.913492
         0.268000	    0.912639	    0.912639
         0.270000	    0.911784	    0.911784
         0.272000	    0.910927	    0.910927
         0.274000	    0.910067	    0.910067
         0.276000	    0.909206	    0.909206
         0.278000	    0.908343	    0.908343
         0.280000	    0.907478	    0.907478
         0.282000	    0.906612	    0.906612
         0.284000	    0.905743	    0.905743
         0.286000	    0.904873	    0.904873
         0.288000	    0.904000	    0.904000
         0.290000	    0.903126	    0.903126
         0.292000	    0.902251	    0.902251
         0.294000	    0.901373	    0.901373
         0.296000	    0.900494	    0.900494
         0.298000	    0.899613	    0.899613
         0.300000	    0.898730	    0.898730
         0.302000	    0.897845	    0.897845
         0.304000	    0.896959	    0.896959
         0.306000	    0.896071	    0.896071
         0.308000	    0.895182	    0.895182
         0.310000	    0.894290	    0.894290
         0.312000	    0.893398	    0.893398
         0.314000	    0.892503	    0.892503
         0.316000	    0.891607	    0.891607
         0.318000	    0.890710	    0.890710
         0.320000	    0.889810	    0.889810
         0.322000	    0.888910	    0.888910
         0.324000	    0.888007	    0.888007
         0.326000	    0.887103	    0.887103
         0.328000	    0.886198	    0.886198
         0.330000	    0.885291	    0.885291
         0.332000	    0.884383	    0.884383
         0.334000	    0.883473	    0.883473
         0.336000	    0.882562	    0.882562
         0.338000	    0.881649	    0.881649
         0.340000	    0.880735	    0.880735
         0.342000	    0.879819	    0.879819
         0.344000	    0.878902	    0.878902
         0.346000	    0.877983	    0.877983
         0.348000	    0.877063	    0.877063
         0.350000	    0.876142	    0.876142
         0.352000	    0.875220	    0.875220
         0.354000	    0.874296	    0.874296
         0.356000	    0.873370	    0.873370
         0.358000	    0.872444	    0.872444
         0.360000	    0.871516	    0.871516
         0.362000	    0.870586	    0.870586
         0.364000	    0.869656	    0.869656
         0.366000	    0.868724	    0.868724
         0.368000	    0.867791	    0.867791
         0.370000	    0.866856	    0.866856
         0.372000	    0.865921	    0.865921
         0.374000	    0.864984	    0.864984
         0.376000	    0.864046	    0.864046
         0.378000	    0.863107	    0.863107
         0.380000	    0.862166	    0.862166
         0.382000	    0.861224	    0.861224
         0.384000	    0.860281	    0.860281
         0.386000	    0.859337	    0.859337
         0.388000	    0.858392	    0.858392
         0.390000	    0.857446	    0.857446
         0.392000	    0.856498	    0.856498
         0.394000	    0.855550	    0.855550
         0.396000	    0.854600	    0.854600
         0.398000	    0.853649	    0.853649
         0.400000	    0.852697	    0.852697
         0.402000	    0.851744	    0.851744
         0.404000	    0.850790	    0.850790
         0.406000	    0.849834	    0.849834
         0.408000	    0.848878	    0.848878
         0.410000	    0.847921	    0.847921
         0.412000	    0.846962	    0.846962
         0.414000	    0.846003	    0.846003
         0.416000	    0.845043	    0.845043
         0.418000	    0.844082	    0.844082
         0.420000	    0.843120	    0.843120
         0.422000	    0.842157	    0.842157
         0.424000	    0.841193	    0.841193
         0.426000	    0.840228	    0.840228
         0.428000	    0.839262	    0.839262
         0.430000	    0.838295	    0.838295
         0.432000	    0.837327	    0.837327
         0.434000	    0.836358	    0.836358
         0.436000	    0.835388	    0.835388
         0.438000	    0.834418	    0.834418
         0.440000	    0.833446	    0.833446
         0.442000	    0.832473	    0.832473
         0.444000	    0.831500	    0.831500
         0.446000	    0.830526	    0.830526
         0.448000	    0.829550	    0.829550
         0.450000	    0.828574	    0.828574
         0.452000	    0.827597	    0.827597
         0.454000	    0.826620	    0.826620
         0.456000	    0.825641	    0.825641
         0.458000	    0.824661	    0.824661
         0.460000	    0.823681	    0.823681
         0.462000	    0.822700	    0.822700
         0.464000	    0.821718	    0.821718
         0.466000	    0.820735	    0.820735
         0.468000	    0.819752	    0.819752
         0.470000	    0.818767	    0.818767
         0.472000	    0.817782	    0.817782
         0.474000	    0.816796	    0.816796
         0.476000	    0.815810	    0.815810
         0.478000	    0.814822	    0.814822
         0.480000	    0.813834	    0.813834
         0.482000	    0.812845	    0.812845
         0.484000	    0.811856	    0.811856
         0.486000	    0.810865	    0.810865
         0.488000	    0.809874	    0.809874
         0.490000	    0.808882	    0.808882
         0.492000	    0.807890	    0.807890
         0.494000	    0.806897	    0.806897
         0.496000	    0.805903	    0.805903
         0.498000	    0.804908	    0.804908
         0.500000	    0.803913	    0.803913
         0.502000	    0.802917	    0.802917
         0.504000	    0.801920	    0.801920
         0.506000	    0.800923	    0.800923
         0.508000	    0.799925	    0.799925
         0.510000	    0.798926	    0.798926
         0.512000	    0.797927	    0.797927
         0.514000	    0.796927	    0.796927
         0.516000	    0.795927	    0.795927
         0.518000	    0.794926	    0.794926
         0.520000	    0.793925	    0.793925
         0.522000	    0.792923	    0.792923
         0.524000	    0.791920	    0.791920
         0.526000	    0.790917	    0.790917
         0.528000	    0.789913	    0.789913
         0.530000	    0.788909	    0.788909
         0.532000	    0.787904	    0.787904
         0.534000	    0.786899	    0.786899
         0.536000	    0.785893	    0.785893
         0.538000	    0.784887	    0.784887
         0.540000	    0.783880	    0.783880
         0.542000	    0.782872	    0.782872
         0.544000	    0.781864	    0.781864
         0.546000	    0.780855	    0.780855
         0.548000	    0.779846	    0.779846
         0.550000	    0.778836	    0.778836
         0.552000	    0.777826	    0.777826
         0.554000	    0.776816	    0.776816
         0.556000	    0.775804	    0.775804
         0.558000	    0.774793	    0.774793
         0.560000	    0.773781	    0.773781
         0.562000	    0.772768	    0.772768
         0.564000	    0.771755	    0.771755
         0.566000	    0.770742	    0.770742
         0.568000	    0.769728	    0.769728
         0.570000	    0.768713	    0.768713
         0.572000	    0.767698	    0.767698
         0.574000	    0.766683	    0.766683
         0.576000	    0.765667	    0.765667
         0.578000	    0.764651	    0.764651
         0.580000	    0.763635	    0.763635
         0.582000	    0.762618	    0.762618
         0.584000	    0.761600	    0.761600
         0.586000	    0.760582	    0.760582
         0.588000	    0.759564	    0.759564
         0.590000	    0.758546	    0.758546
         0.592000	    0.757527	    0.757527
         0.594000	    0.756507	    0.756507
         0.596000	    0.755488	    0.755488
         0.598000	    0.754467	    0.754467
         0.600000	    0.753447	    0.753447
         0.602000	    0.752426	    0.752426
         0.604000	    0.751405	    0.751405
         0.606000	    0.750383	    0.750383
         0.608000	    0.749362	    0.749362
         0.610000	    0.748340	    0.748340
         0.612000	    0.747317	    0.747317
         0.614000	    0.746295	    0.746295
         0.616000	    0.745272	    0.745272
         0.618000	    0.744249	    0.744249
         0.620000	    0.743226	    0.743226
         0.622000	    0.742202	    0.742202
         0.624000	    0.741178	    0.741178
         0.626000	    0.740154	    0.740154
         0.628000	    0.739129	    0.739129
         0.630000	    0.738104	    0.738104
         0.632000	    0.737079	    0.737079
         0.634000	    0.736054	    0.736054
         0.636000	    0.735028	    0.735028
         0.638000	    0.734002	    0.734002
         0.640000	    0.732976	    0.732976
         0.642000	    0.731949	    0.731949
         0.644000	    0.730923	    0.730923
         0.646000	    0.729896	    0.729896
         0.648000	    0.728869	    0.728869
         0.650000	    0.727841	    0.727841
         0.652000	    0.726814	    0.726814
         0.654000	    0.725786	    0.725786
         0.656000	    0.724758	    0.724758
         0.658000	    0.723729	    0.723729
         0.660000	    0.722701	    0.722701
         0.662000	    0.721672	    0.721672
         0.664000	    0.720643	    0.720643
         0.666000	    0.719614	    0.719614
         0.668000	    0.718585	    0.718585
         0.670000	    0.717556	    0.717556
         0.672000	    0.716526	    0.716526
         0.674000	    0.715497	    0.715497
         0.676000	    0.714467	    0.714467
         0.678000	    0.713437	    0.713437
         0.680000	    0.712407	    0.712407
         0.682000	    0.711376	    0.711376
         0.684000	    0.710346	    0.710346
         0.686000	    0.709315	    0.709315
         0.688000	    0.708285	    0.708285
         0.690000	    0.707254	    0.707254
         0.692000	    0.706224	    0.706224
         0.694000	    0.705193	    0.705193
         0.696000	    0.704162	    0.704162
         0.698000	    0.703131	    0.703131
         0.700000	    0.702100	    0.702100
         0.702000	    0.701069	    0.701069
         0.704000	    0.700038	    0.700038
         0.706000	    0.699006	    0.699006
         0.708000	    0.697975	    0.697975
         0.710000	    0.696943	    0.696943
         0.712000	    0.695912	    0.695912
         0.714000	    0.694880	    0.694880
         0.716000	    0.693848	    0.693848
         0.718000	    0.692817	    0.692817
         0.720000	    0.691785	    0.691785
         0.722000	    0.690753	    0.690753
         0.724000	    0.689721	    0.689721
         0.726000	    0.688689	    0.688689
         0.728000	    0.687657	    0.687657
         0.730000	    0.686625	    0.686625
         0.732000	    0.685593	    0.685593
         0.734000	    0.684561	    0.684561
         0.736000	    0.683529	    0.683529
         0.738000	    0.682497	    0.682497
         0.740000	    0.681465	    0.681465
         0.742000	    0.680433	    0.680433
         0.744000	    0.679401	    0.679401
         0.746000	    0.678368	    0.678368
         0.748000	    0.677336	    0.677336
         0.750000	    0.676304	    0.676304
         0.752000	    0.675272	    0.675272
         0.754000	    0.674240	    0.674240
         0.756000	    0.673208	    0.673208
         0.758000	    0.672177	    0.672177
         0.760000	    0.671145	    0.671145
         0.762000	    0.670113	    0.670113
         0.764000	    0.669082	    0.669082
         0.766000	    0.668051	    0.668051
         0.768000	    0.667019	    0.667019
         0.770000	    0.665988	    0.665988
         0.772000	    0.664957	    0.664957
         0.774000	    0.663926	    0.663926
         0.776000	    0.662895	    0.662895
         0.778000	    0.661864	    0.661864
         0.780000	    0.660833	    0.660833
         0.782000	    0.659802	    0.659802
         0.784000	    0.658771	    0.658771
         0.786000	    0.657740	    0.657740
         0.788000	    0.656710	    0.656710
         0.790000	    0.655680	    0.655680
         0.792000	    0.654649	    0.654649
         0.794000	    0.653619	    0.653619
         0.796000	    0.652589	    0.652589
         0.798000	    0.651559	    0.651559
         0.800000	    0.650529	    0.650529
         0.802000	    0.649500	    0.649500
         0.804000	    0.648470	    0.648470
         0.806000	    0.647441	    0.647441
         0.808000	    0.646411	    0.646411
         0.810000	    0.645382	    0.645382
         0.812000	    0.644353	    0.644353
         0.814000	    0.643325	    0.643325
         0.816000	    0.642296	    0.642296
         0.818000	    0.641267	    0.641267
         0.820000	    0.640239	    0.640239
         0.822000	    0.639211	    0.639211
         0.824000	    0.638184	    0.638184
         0.826000	    0.637156	    0.637156
         0.828000	    0.636129	    0.636129
         0.830000	    0.635102	    0.635102
         0.832000	    0.634075	    0.634075
         0.834000	    0.633049	    0.633049
         0.836000	    0.632022	    0.632022
         0.838000	    0.630996	    0.630996
         0.840000	    0.629970	    0.629970
         0.842000	    0.628945	    0.628945
         0.844000	    0.627919	    0.627919
         0.846000	    0.626894	    0.626894
         0.848000	    0.625869	    0.625869
         0.850000	    0.624844	    0.624844
         0.852000	    0.623819	    0.623819
         0.854000	    0.622795	    0.622795
         0.856000	    0.621771	    0.621771
         0.858000	    0.620747	    0.620747
         0.860000	    0.619723	    0.619723
         0.862000	    0.618700	    0.618700
         0.864000	    0.617677	    0.617677
         0.866000	    0.616654	    0.616654
         0.868000	    0.615632	    0.615632
         0.870000	    0.614609	    0.614609
         0.872000	    0.613587	    0.613587
         0.874000	    0.612566	    0.612566
         0.876000	    0.611544	    0.611544
         0.878000	    0.610524	    0.610524
         0.880000	    0.609503	    0.609503
         0.882000	    0.608483	    0.608483
         0.884000	    0.607463	    0.607463
         0.886000	    0.606444	    0.606444
         0.888000	    0.605424	    0.605424
         0.890000	    0.604406	    0.604406
         0.892000	    0.603387	    0.603387
