Diffraction MTF

File : C:\Users\Trisha\Documents\Zemax\SAMPLES\Navarro_Trisha_scene2retina.ZMX
Title: 
Date : 10/15/2018


Data for 0.6328 Âµm.
Surface: Image (RETINA)
Angular Frequency units are cycles per mr.
Modulation is relative to 1.0.

Field: 0.00, 0.00 (deg)
Spatial Frequency	  Tangential	    Sagittal
         0.000000	    1.000000	    1.000000
         0.002000	    0.999639	    0.999639
         0.004000	    0.999274	    0.999274
         0.006000	    0.998902	    0.998902
         0.008000	    0.998523	    0.998523
         0.010000	    0.998139	    0.998139
         0.012000	    0.997748	    0.997748
         0.014000	    0.997352	    0.997352
         0.016000	    0.996949	    0.996949
         0.018000	    0.996541	    0.996541
         0.020000	    0.996127	    0.996127
         0.022000	    0.995707	    0.995707
         0.024000	    0.995281	    0.995281
         0.026000	    0.994850	    0.994850
         0.028000	    0.994412	    0.994412
         0.030000	    0.993970	    0.993970
         0.032000	    0.993521	    0.993521
         0.034000	    0.993067	    0.993067
         0.036000	    0.992608	    0.992608
         0.038000	    0.992143	    0.992143
         0.040000	    0.991673	    0.991673
         0.042000	    0.991198	    0.991198
         0.044000	    0.990717	    0.990717
         0.046000	    0.990231	    0.990231
         0.048000	    0.989740	    0.989740
         0.050000	    0.989243	    0.989243
         0.052000	    0.988742	    0.988742
         0.054000	    0.988235	    0.988235
         0.056000	    0.987723	    0.987723
         0.058000	    0.987207	    0.987207
         0.060000	    0.986685	    0.986685
         0.062000	    0.986159	    0.986159
         0.064000	    0.985628	    0.985628
         0.066000	    0.985092	    0.985092
         0.068000	    0.984551	    0.984551
         0.070000	    0.984005	    0.984005
         0.072000	    0.983455	    0.983455
         0.074000	    0.982900	    0.982900
         0.076000	    0.982340	    0.982340
         0.078000	    0.981776	    0.981776
         0.080000	    0.981207	    0.981207
         0.082000	    0.980634	    0.980634
         0.084000	    0.980057	    0.980057
         0.086000	    0.979475	    0.979475
         0.088000	    0.978888	    0.978888
         0.090000	    0.978298	    0.978298
         0.092000	    0.977703	    0.977703
         0.094000	    0.977104	    0.977104
         0.096000	    0.976500	    0.976500
         0.098000	    0.975893	    0.975893
         0.100000	    0.975281	    0.975281
         0.102000	    0.974665	    0.974665
         0.104000	    0.974045	    0.974045
         0.106000	    0.973421	    0.973421
         0.108000	    0.972793	    0.972793
         0.110000	    0.972162	    0.972162
         0.112000	    0.971526	    0.971526
         0.114000	    0.970886	    0.970886
         0.116000	    0.970243	    0.970243
         0.118000	    0.969595	    0.969595
         0.120000	    0.968944	    0.968944
         0.122000	    0.968290	    0.968290
         0.124000	    0.967631	    0.967631
         0.126000	    0.966969	    0.966969
         0.128000	    0.966303	    0.966303
         0.130000	    0.965634	    0.965634
         0.132000	    0.964961	    0.964961
         0.134000	    0.964284	    0.964284
         0.136000	    0.963604	    0.963604
         0.138000	    0.962921	    0.962921
         0.140000	    0.962234	    0.962234
         0.142000	    0.961544	    0.961544
         0.144000	    0.960850	    0.960850
         0.146000	    0.960153	    0.960153
         0.148000	    0.959453	    0.959453
         0.150000	    0.958749	    0.958749
         0.152000	    0.958042	    0.958042
         0.154000	    0.957332	    0.957332
         0.156000	    0.956619	    0.956619
         0.158000	    0.955903	    0.955903
         0.160000	    0.955183	    0.955183
         0.162000	    0.954460	    0.954460
         0.164000	    0.953735	    0.953735
         0.166000	    0.953006	    0.953006
         0.168000	    0.952274	    0.952274
         0.170000	    0.951540	    0.951540
         0.172000	    0.950802	    0.950802
         0.174000	    0.950062	    0.950062
         0.176000	    0.949318	    0.949318
         0.178000	    0.948572	    0.948572
         0.180000	    0.947823	    0.947823
         0.182000	    0.947071	    0.947071
         0.184000	    0.946316	    0.946316
         0.186000	    0.945559	    0.945559
         0.188000	    0.944798	    0.944798
         0.190000	    0.944036	    0.944036
         0.192000	    0.943270	    0.943270
         0.194000	    0.942502	    0.942502
         0.196000	    0.941731	    0.941731
         0.198000	    0.940958	    0.940958
         0.200000	    0.940182	    0.940182
         0.202000	    0.939403	    0.939403
         0.204000	    0.938622	    0.938622
         0.206000	    0.937838	    0.937838
         0.208000	    0.937052	    0.937052
         0.210000	    0.936264	    0.936264
         0.212000	    0.935473	    0.935473
         0.214000	    0.934680	    0.934680
         0.216000	    0.933884	    0.933884
         0.218000	    0.933086	    0.933086
         0.220000	    0.932286	    0.932286
         0.222000	    0.931483	    0.931483
         0.224000	    0.930678	    0.930678
         0.226000	    0.929871	    0.929871
         0.228000	    0.929062	    0.929062
         0.230000	    0.928250	    0.928250
         0.232000	    0.927436	    0.927436
         0.234000	    0.926620	    0.926620
         0.236000	    0.925802	    0.925802
         0.238000	    0.924982	    0.924982
         0.240000	    0.924159	    0.924159
         0.242000	    0.923335	    0.923335
         0.244000	    0.922508	    0.922508
         0.246000	    0.921680	    0.921680
         0.248000	    0.920849	    0.920849
         0.250000	    0.920017	    0.920017
         0.252000	    0.919182	    0.919182
         0.254000	    0.918345	    0.918345
         0.256000	    0.917507	    0.917507
         0.258000	    0.916667	    0.916667
         0.260000	    0.915824	    0.915824
         0.262000	    0.914980	    0.914980
         0.264000	    0.914134	    0.914134
         0.266000	    0.913286	    0.913286
         0.268000	    0.912437	    0.912437
         0.270000	    0.911586	    0.911586
         0.272000	    0.910733	    0.910733
         0.274000	    0.909878	    0.909878
         0.276000	    0.909022	    0.909022
         0.278000	    0.908163	    0.908163
         0.280000	    0.907303	    0.907303
         0.282000	    0.906442	    0.906442
         0.284000	    0.905578	    0.905578
         0.286000	    0.904713	    0.904713
         0.288000	    0.903847	    0.903847
         0.290000	    0.902979	    0.902979
         0.292000	    0.902109	    0.902109
         0.294000	    0.901237	    0.901237
         0.296000	    0.900364	    0.900364
         0.298000	    0.899489	    0.899489
         0.300000	    0.898613	    0.898613
         0.302000	    0.897735	    0.897735
         0.304000	    0.896856	    0.896856
         0.306000	    0.895975	    0.895975
         0.308000	    0.895093	    0.895093
         0.310000	    0.894209	    0.894209
         0.312000	    0.893324	    0.893324
         0.314000	    0.892438	    0.892438
         0.316000	    0.891550	    0.891550
         0.318000	    0.890660	    0.890660
         0.320000	    0.889769	    0.889769
         0.322000	    0.888877	    0.888877
         0.324000	    0.887984	    0.887984
         0.326000	    0.887089	    0.887089
         0.328000	    0.886192	    0.886192
         0.330000	    0.885295	    0.885295
         0.332000	    0.884396	    0.884396
         0.334000	    0.883496	    0.883496
         0.336000	    0.882594	    0.882594
         0.338000	    0.881691	    0.881691
         0.340000	    0.880787	    0.880787
         0.342000	    0.879882	    0.879882
         0.344000	    0.878975	    0.878975
         0.346000	    0.878068	    0.878068
         0.348000	    0.877159	    0.877159
         0.350000	    0.876249	    0.876249
         0.352000	    0.875337	    0.875337
         0.354000	    0.874425	    0.874425
         0.356000	    0.873511	    0.873511
         0.358000	    0.872597	    0.872597
         0.360000	    0.871681	    0.871681
         0.362000	    0.870764	    0.870764
         0.364000	    0.869846	    0.869846
         0.366000	    0.868926	    0.868926
         0.368000	    0.868006	    0.868006
         0.370000	    0.867085	    0.867085
         0.372000	    0.866162	    0.866162
         0.374000	    0.865239	    0.865239
         0.376000	    0.864314	    0.864314
         0.378000	    0.863389	    0.863389
         0.380000	    0.862462	    0.862462
         0.382000	    0.861535	    0.861535
         0.384000	    0.860606	    0.860606
         0.386000	    0.859677	    0.859677
         0.388000	    0.858746	    0.858746
         0.390000	    0.857815	    0.857815
         0.392000	    0.856882	    0.856882
         0.394000	    0.855949	    0.855949
         0.396000	    0.855015	    0.855015
         0.398000	    0.854079	    0.854079
         0.400000	    0.853143	    0.853143
         0.402000	    0.852206	    0.852206
         0.404000	    0.851268	    0.851268
         0.406000	    0.850330	    0.850330
         0.408000	    0.849390	    0.849390
         0.410000	    0.848449	    0.848449
         0.412000	    0.847508	    0.847508
         0.414000	    0.846566	    0.846566
         0.416000	    0.845624	    0.845624
         0.418000	    0.844680	    0.844680
         0.420000	    0.843736	    0.843736
         0.422000	    0.842791	    0.842791
         0.424000	    0.841845	    0.841845
         0.426000	    0.840898	    0.840898
         0.428000	    0.839951	    0.839951
         0.430000	    0.839003	    0.839003
         0.432000	    0.838054	    0.838054
         0.434000	    0.837104	    0.837104
         0.436000	    0.836154	    0.836154
         0.438000	    0.835202	    0.835202
         0.440000	    0.834251	    0.834251
         0.442000	    0.833298	    0.833298
         0.444000	    0.832345	    0.832345
         0.446000	    0.831391	    0.831391
         0.448000	    0.830436	    0.830436
         0.450000	    0.829480	    0.829480
         0.452000	    0.828524	    0.828524
         0.454000	    0.827568	    0.827568
         0.456000	    0.826610	    0.826610
         0.458000	    0.825652	    0.825652
         0.460000	    0.824694	    0.824694
         0.462000	    0.823734	    0.823734
         0.464000	    0.822774	    0.822774
         0.466000	    0.821814	    0.821814
         0.468000	    0.820853	    0.820853
         0.470000	    0.819891	    0.819891
         0.472000	    0.818929	    0.818929
         0.474000	    0.817966	    0.817966
         0.476000	    0.817002	    0.817002
         0.478000	    0.816038	    0.816038
         0.480000	    0.815073	    0.815073
         0.482000	    0.814108	    0.814108
         0.484000	    0.813142	    0.813142
         0.486000	    0.812176	    0.812176
         0.488000	    0.811209	    0.811209
         0.490000	    0.810242	    0.810242
         0.492000	    0.809274	    0.809274
         0.494000	    0.808306	    0.808306
         0.496000	    0.807337	    0.807337
         0.498000	    0.806367	    0.806367
         0.500000	    0.805397	    0.805397
         0.502000	    0.804427	    0.804427
         0.504000	    0.803456	    0.803456
         0.506000	    0.802485	    0.802485
         0.508000	    0.801513	    0.801513
         0.510000	    0.800541	    0.800541
         0.512000	    0.799568	    0.799568
         0.514000	    0.798595	    0.798595
         0.516000	    0.797621	    0.797621
         0.518000	    0.796647	    0.796647
         0.520000	    0.795673	    0.795673
         0.522000	    0.794698	    0.794698
         0.524000	    0.793723	    0.793723
         0.526000	    0.792748	    0.792748
         0.528000	    0.791772	    0.791772
         0.530000	    0.790796	    0.790796
         0.532000	    0.789819	    0.789819
         0.534000	    0.788842	    0.788842
         0.536000	    0.787865	    0.787865
         0.538000	    0.786887	    0.786887
         0.540000	    0.785909	    0.785909
         0.542000	    0.784930	    0.784930
         0.544000	    0.783952	    0.783952
         0.546000	    0.782972	    0.782972
         0.548000	    0.781993	    0.781993
         0.550000	    0.781013	    0.781013
         0.552000	    0.780033	    0.780033
         0.554000	    0.779052	    0.779052
         0.556000	    0.778071	    0.778071
         0.558000	    0.777090	    0.777090
         0.560000	    0.776109	    0.776109
         0.562000	    0.775127	    0.775127
         0.564000	    0.774145	    0.774145
         0.566000	    0.773162	    0.773162
         0.568000	    0.772180	    0.772180
         0.570000	    0.771197	    0.771197
         0.572000	    0.770213	    0.770213
         0.574000	    0.769230	    0.769230
         0.576000	    0.768246	    0.768246
         0.578000	    0.767262	    0.767262
         0.580000	    0.766278	    0.766278
         0.582000	    0.765293	    0.765293
         0.584000	    0.764308	    0.764308
         0.586000	    0.763323	    0.763323
         0.588000	    0.762338	    0.762338
         0.590000	    0.761352	    0.761352
         0.592000	    0.760367	    0.760367
         0.594000	    0.759381	    0.759381
         0.596000	    0.758394	    0.758394
         0.598000	    0.757408	    0.757408
         0.600000	    0.756421	    0.756421
         0.602000	    0.755434	    0.755434
         0.604000	    0.754447	    0.754447
         0.606000	    0.753460	    0.753460
         0.608000	    0.752473	    0.752473
         0.610000	    0.751485	    0.751485
         0.612000	    0.750498	    0.750498
         0.614000	    0.749510	    0.749510
         0.616000	    0.748523	    0.748523
         0.618000	    0.747535	    0.747535
         0.620000	    0.746547	    0.746547
         0.622000	    0.745558	    0.745558
         0.624000	    0.744570	    0.744570
         0.626000	    0.743581	    0.743581
         0.628000	    0.742593	    0.742593
         0.630000	    0.741604	    0.741604
         0.632000	    0.740615	    0.740615
         0.634000	    0.739626	    0.739626
         0.636000	    0.738637	    0.738637
         0.638000	    0.737647	    0.737647
         0.640000	    0.736658	    0.736658
         0.642000	    0.735668	    0.735668
         0.644000	    0.734679	    0.734679
         0.646000	    0.733689	    0.733689
         0.648000	    0.732699	    0.732699
         0.650000	    0.731709	    0.731709
         0.652000	    0.730719	    0.730719
         0.654000	    0.729729	    0.729729
         0.656000	    0.728739	    0.728739
         0.658000	    0.727749	    0.727749
         0.660000	    0.726758	    0.726758
         0.662000	    0.725768	    0.725768
         0.664000	    0.724777	    0.724777
         0.666000	    0.723787	    0.723787
         0.668000	    0.722796	    0.722796
         0.670000	    0.721806	    0.721806
         0.672000	    0.720815	    0.720815
         0.674000	    0.719825	    0.719825
         0.676000	    0.718834	    0.718834
         0.678000	    0.717843	    0.717843
         0.680000	    0.716852	    0.716852
         0.682000	    0.715862	    0.715862
         0.684000	    0.714871	    0.714871
         0.686000	    0.713880	    0.713880
         0.688000	    0.712889	    0.712889
         0.690000	    0.711899	    0.711899
         0.692000	    0.710908	    0.710908
         0.694000	    0.709918	    0.709918
         0.696000	    0.708927	    0.708927
         0.698000	    0.707937	    0.707937
         0.700000	    0.706947	    0.706947
         0.702000	    0.705956	    0.705956
         0.704000	    0.704966	    0.704966
         0.706000	    0.703975	    0.703975
         0.708000	    0.702985	    0.702985
         0.710000	    0.701995	    0.701995
         0.712000	    0.701004	    0.701004
         0.714000	    0.700014	    0.700014
         0.716000	    0.699024	    0.699024
         0.718000	    0.698034	    0.698034
         0.720000	    0.697044	    0.697044
         0.722000	    0.696054	    0.696054
         0.724000	    0.695064	    0.695064
         0.726000	    0.694074	    0.694074
         0.728000	    0.693084	    0.693084
         0.730000	    0.692095	    0.692095
         0.732000	    0.691105	    0.691105
         0.734000	    0.690115	    0.690115
         0.736000	    0.689126	    0.689126
         0.738000	    0.688137	    0.688137
         0.740000	    0.687147	    0.687147
         0.742000	    0.686158	    0.686158
         0.744000	    0.685169	    0.685169
         0.746000	    0.684180	    0.684180
         0.748000	    0.683191	    0.683191
         0.750000	    0.682202	    0.682202
         0.752000	    0.681214	    0.681214
         0.754000	    0.680225	    0.680225
         0.756000	    0.679237	    0.679237
         0.758000	    0.678249	    0.678249
         0.760000	    0.677261	    0.677261
         0.762000	    0.676273	    0.676273
         0.764000	    0.675286	    0.675286
         0.766000	    0.674299	    0.674299
         0.768000	    0.673311	    0.673311
         0.770000	    0.672324	    0.672324
         0.772000	    0.671337	    0.671337
         0.774000	    0.670351	    0.670351
         0.776000	    0.669364	    0.669364
         0.778000	    0.668378	    0.668378
         0.780000	    0.667391	    0.667391
         0.782000	    0.666405	    0.666405
         0.784000	    0.665420	    0.665420
         0.786000	    0.664434	    0.664434
         0.788000	    0.663448	    0.663448
         0.790000	    0.662463	    0.662463
         0.792000	    0.661478	    0.661478
         0.794000	    0.660493	    0.660493
         0.796000	    0.659508	    0.659508
         0.798000	    0.658524	    0.658524
         0.800000	    0.657539	    0.657539
         0.802000	    0.656555	    0.656555
         0.804000	    0.655571	    0.655571
         0.806000	    0.654588	    0.654588
         0.808000	    0.653604	    0.653604
         0.810000	    0.652621	    0.652621
         0.812000	    0.651638	    0.651638
         0.814000	    0.650655	    0.650655
         0.816000	    0.649673	    0.649673
         0.818000	    0.648690	    0.648690
         0.820000	    0.647708	    0.647708
         0.822000	    0.646727	    0.646727
         0.824000	    0.645745	    0.645745
         0.826000	    0.644764	    0.644764
         0.828000	    0.643784	    0.643784
         0.830000	    0.642803	    0.642803
         0.832000	    0.641823	    0.641823
         0.834000	    0.640843	    0.640843
         0.836000	    0.639863	    0.639863
         0.838000	    0.638884	    0.638884
         0.840000	    0.637905	    0.637905
         0.842000	    0.636926	    0.636926
         0.844000	    0.635948	    0.635948
         0.846000	    0.634969	    0.634969
         0.848000	    0.633991	    0.633991
         0.850000	    0.633014	    0.633014
         0.852000	    0.632036	    0.632036
         0.854000	    0.631059	    0.631059
         0.856000	    0.630083	    0.630083
         0.858000	    0.629106	    0.629106
         0.860000	    0.628130	    0.628130
         0.862000	    0.627154	    0.627154
         0.864000	    0.626179	    0.626179
         0.866000	    0.625204	    0.625204
         0.868000	    0.624229	    0.624229
         0.870000	    0.623254	    0.623254
         0.872000	    0.622280	    0.622280
         0.874000	    0.621306	    0.621306
         0.876000	    0.620332	    0.620332
         0.878000	    0.619360	    0.619360
         0.880000	    0.618387	    0.618387
         0.882000	    0.617415	    0.617415
         0.884000	    0.616443	    0.616443
         0.886000	    0.615472	    0.615472
         0.888000	    0.614501	    0.614501
         0.890000	    0.613530	    0.613530
         0.892000	    0.612560	    0.612560
